Voltage[V]	Current[A]	CoilCurrent[A]
3.023515E-6	-1.003854E-7
2.681018E-6	8.574343E-6
3.188859E-6	1.872235E-5
2.326711E-6	2.923735E-5
2.645587E-6	3.978373E-5
3.188890E-6	4.996537E-5
2.456642E-6	5.989445E-5
2.728288E-6	6.995764E-5
2.929057E-6	7.987511E-5
3.141640E-6	8.997375E-5
2.515701E-6	9.988942E-5
2.775525E-6	0.000110
2.858185E-6	0.000120
2.740086E-6	0.000130
2.362147E-6	0.000140
2.846364E-6	0.000150
2.598354E-6	0.000160
2.562936E-6	0.000170
2.527508E-6	0.000180
2.858213E-6	0.000190
2.763718E-6	0.000200
2.988127E-6	0.000210
2.681050E-6	0.000220
3.106195E-6	0.000230
2.421213E-6	0.000240
2.503890E-6	0.000250
2.692845E-6	0.000260
3.165251E-6	0.000270
3.070765E-6	0.000280
2.562925E-6	0.000290
2.704648E-6	0.000300
3.366054E-6	0.000310
2.846406E-6	0.000320
2.621982E-6	0.000330
2.751894E-6	0.000340
3.047164E-6	0.000350
2.704637E-6	0.000360
3.236102E-6	0.000370
2.846371E-6	0.000381
2.681021E-6	0.000391
2.610179E-6	0.000401
2.929057E-6	0.000411
2.527497E-6	0.000421
2.338511E-6	0.000431
2.858187E-6	0.000441
2.704637E-6	0.000451
2.421195E-6	0.000461
2.976298E-6	0.000471
3.047151E-6	0.000481
3.389645E-6	0.000491
2.621968E-6	0.000501
2.468441E-6	0.000511
2.515715E-6	0.000521
2.456649E-6	0.000531
2.988112E-6	0.000541
2.728288E-6	0.000551
3.330621E-6	0.000561
2.940875E-6	0.000571
3.058967E-6	0.000581
2.551122E-6	0.000591
2.775516E-6	0.000601
3.696741E-6	0.000611
3.106208E-6	0.000621
3.118015E-6	0.000631
2.645598E-6	0.000641
3.058989E-6	0.000651
3.129850E-6	0.000661
3.023559E-6	0.000671
3.035364E-6	0.000681
2.787332E-6	0.000691
3.106235E-6	0.000701
2.952685E-6	0.000712
2.586579E-6	0.000721
2.858204E-6	0.000732
3.141631E-6	0.000741
3.330602E-6	0.000752
3.118039E-6	0.000761
2.952673E-6	0.000772
3.566804E-6	0.000781
3.637693E-6	0.000792
2.633802E-6	0.000801
2.952698E-6	0.000811
2.917242E-6	0.000821
3.129846E-6	0.000831
3.058964E-6	0.000841
3.720368E-6	0.000851
3.094390E-6	0.000861
2.834571E-6	0.000871
3.401474E-6	0.000882
3.188885E-6	0.000892
2.763700E-6	0.000902
2.775525E-6	0.000912
3.448711E-6	0.000922
3.082592E-6	0.000932
3.236131E-6	0.000942
3.177074E-6	0.000952
3.460538E-6	0.000962
3.212514E-6	0.000972
2.893634E-6	0.000982
3.566805E-6	0.000992
3.649491E-6	0.001002
2.905454E-6	0.001012
3.460522E-6	0.001022
2.905434E-6	0.001032
3.448718E-6	0.001042
2.775540E-6	0.001052
3.058973E-6	0.001062
3.200699E-6	0.001072
3.011721E-6	0.001082
3.342422E-6	0.001092
3.448722E-6	0.001102
3.094394E-6	0.001112
3.318799E-6	0.001122
3.389658E-6	0.001133
3.614075E-6	0.001142
3.200697E-6	0.001153
3.696730E-6	0.001162
3.188887E-6	0.001173
3.259758E-6	0.001182
3.283378E-6	0.001192
3.342446E-6	0.001202
3.354235E-6	0.001212
3.236131E-6	0.001223
3.212515E-6	0.001232
3.555017E-6	0.001243
3.401476E-6	0.001252
3.531386E-6	0.001263
0.002755	0.001272
0.002757	0.001283
0.002757	0.001292
0.002758	0.001303
0.002759	0.001312
0.002760	0.001322
0.002761	0.001332
0.002761	0.001342
0.002762	0.001352
0.002762	0.001362
0.002763	0.001373
0.002763	0.001383
0.002765	0.001393
0.002765	0.001403
0.002765	0.001413
0.002766	0.001423
0.002766	0.001433
0.002767	0.001443
0.002767	0.001453
0.002768	0.001463
0.002768	0.001473
0.002774	0.001483
0.002769	0.001493
0.002769	0.001503
0.002769	0.001513
0.002770	0.001523
0.002771	0.001533
0.002771	0.001543
0.002771	0.001553
0.002771	0.001563
0.002771	0.001573
0.002771	0.001583
0.002772	0.001593
0.002773	0.001603
0.002772	0.001613
0.002773	0.001623
0.002773	0.001633
0.002773	0.001644
0.002773	0.001653
0.002773	0.001663
0.002774	0.001673
0.002774	0.001684
0.002774	0.001693
0.002774	0.001703
0.002774	0.001714
0.002778	0.001723
0.002774	0.001734
0.002778	0.001743
0.002780	0.001754
0.002780	0.001763
0.002781	0.001774
0.002781	0.001783
0.002781	0.001794
0.002781	0.001803
0.002782	0.001814
0.002782	0.001823
0.002782	0.001834
0.002782	0.001843
0.002782	0.001854
0.002782	0.001863
0.002782	0.001873
0.002783	0.001884
0.002782	0.001894
0.002782	0.001904
0.002784	0.001914
0.002783	0.001924
0.002783	0.001934
0.002783	0.001944
0.002783	0.001954
0.002783	0.001964
0.002783	0.001974
0.002782	0.001984
0.002783	0.001994
0.002783	0.002004
0.002784	0.002014
0.002784	0.002024
0.002784	0.002034
0.002784	0.002044
0.002784	0.002054
0.002783	0.002064
0.002784	0.002074
0.002783	0.002084
0.002784	0.002094
0.002784	0.002104
0.002785	0.002114
0.002784	0.002124
0.002783	0.002134
0.002784	0.002144
0.002784	0.002155
0.002784	0.002164
0.002784	0.002174
0.002785	0.002184
0.002784	0.002194
0.002784	0.002204
0.002784	0.002214
0.002784	0.002225
0.002784	0.002234
0.002784	0.002245
0.002785	0.002254
0.002785	0.002264
0.002785	0.002274
0.002785	0.002285
0.002784	0.002294
0.002785	0.002304
0.002784	0.002314
0.002785	0.002325
0.002785	0.002334
0.002784	0.002344
0.002784	0.002354
0.002785	0.002364
0.002785	0.002375
0.002784	0.002385
0.002785	0.002395
0.002784	0.002405
0.002785	0.002415
0.002786	0.002425
0.002784	0.002435
0.002784	0.002445
0.002784	0.002455
0.002785	0.002465
0.002785	0.002475
0.002785	0.002485
0.002785	0.002495
0.002785	0.002505
0.002784	0.002515
0.002784	0.002525
0.002784	0.002535
0.002785	0.002545
0.002785	0.002555
0.002785	0.002565
0.002784	0.002575
0.002785	0.002585
0.002784	0.002595
0.002785	0.002605
0.002784	0.002615
0.002784	0.002626
0.002785	0.002635
0.002784	0.002645
0.002785	0.002655
0.002785	0.002666
0.002785	0.002675
0.002786	0.002685
0.002784	0.002695
0.002784	0.002705
0.002786	0.002716
0.002784	0.002725
0.002785	0.002736
0.002784	0.002745
0.002784	0.002756
0.002783	0.002765
0.002784	0.002775
0.002782	0.002785
0.002783	0.002795
0.002783	0.002805
0.002784	0.002815
0.002783	0.002825
0.002784	0.002835
0.002784	0.002845
0.002782	0.002855
0.002783	0.002866
0.002784	0.002876
0.002783	0.002886
0.002783	0.002896
0.002783	0.002906
0.002784	0.002916
0.002783	0.002926
0.002783	0.002936
0.002779	0.002946
0.002779	0.002956
0.002779	0.002966
0.002781	0.002976
0.002778	0.002986
0.002780	0.002996
0.002777	0.003006
0.002777	0.003016
0.002778	0.003026
0.002781	0.003036
0.002780	0.003046
0.002784	0.003056
0.002780	0.003066
0.002778	0.003076
0.002778	0.003086
0.002783	0.003096
0.002778	0.003106
0.002783	0.003116
0.002781	0.003126
0.002778	0.003136
0.002777	0.003146
0.002778	0.003156
0.002779	0.003166
0.002777	0.003176
0.002778	0.003186
0.002779	0.003196
0.002782	0.003207
0.002778	0.003216
0.002782	0.003227
0.002782	0.003236
0.002783	0.003247
0.002780	0.003256
0.002782	0.003267
0.002781	0.003276
0.002777	0.003286
0.002778	0.003296
0.002781	0.003306
0.002782	0.003316
0.002778	0.003326
0.002780	0.003336
0.002784	0.003346
0.002781	0.003356
0.002782	0.003366
0.002779	0.003377
0.002779	0.003387
0.002781	0.003397
0.002776	0.003407
0.002776	0.003417
0.002781	0.003427
0.002780	0.003437
0.002782	0.003447
0.002782	0.003457
0.002779	0.003467
0.002778	0.003477
0.002776	0.003487
0.002779	0.003497
0.002779	0.003507
0.002780	0.003517
0.002780	0.003527
0.002782	0.003537
0.002776	0.003547
0.002779	0.003557
0.002778	0.003567
0.002781	0.003577
0.002780	0.003587
0.002782	0.003597
0.002780	0.003607
0.002781	0.003617
0.002778	0.003627
0.002784	0.003637
0.002780	0.003647
0.002785	0.003657
0.002781	0.003667
0.002781	0.003677
0.002780	0.003687
0.002782	0.003697
0.002780	0.003707
0.002782	0.003718
0.002780	0.003727
0.002781	0.003738
0.002778	0.003747
0.002779	0.003758
0.002782	0.003767
0.002780	0.003777
0.002783	0.003787
0.002784	0.003797
0.002781	0.003807
0.002780	0.003817
0.002780	0.003827
0.002781	0.003837
0.002783	0.003847
0.002781	0.003857
0.002780	0.003868
0.002776	0.003878
0.002781	0.003888
0.002789	0.003898
0.002776	0.003908
0.002780	0.003918
0.002780	0.003928
0.002781	0.003938
0.002782	0.003948
0.002782	0.003958
0.002784	0.003968
0.002776	0.003978
0.002782	0.003988
0.002784	0.003998
0.002781	0.004008
0.002781	0.004018
0.002781	0.004028
0.002781	0.004038
0.002782	0.004048
0.002781	0.004058
0.002781	0.004068
0.002782	0.004078
0.002777	0.004088
0.002782	0.004098
0.002780	0.004108
0.002780	0.004118
0.002779	0.004128
0.002782	0.004138
0.002776	0.004148
0.002782	0.004158
0.002777	0.004168
0.002783	0.004178
0.002782	0.004188
0.002782	0.004198
0.002781	0.004208
0.002784	0.004218
0.002784	0.004228
0.002781	0.004238
0.002782	0.004248
0.002779	0.004258
0.002780	0.004268
0.002782	0.004278
0.002777	0.004288
0.002779	0.004298
0.002777	0.004308
0.002782	0.004318
0.002779	0.004328
0.002788	0.004338
0.002784	0.004348
0.002790	0.004358
0.002785	0.004368
0.002778	0.004379
0.002780	0.004389
0.002780	0.004399
0.002780	0.004409
0.002780	0.004419
0.002777	0.004429
0.002780	0.004439
0.002781	0.004449
0.002776	0.004459
0.002776	0.004469
0.002776	0.004479
0.002775	0.004489
0.002777	0.004499
0.002781	0.004509
0.002778	0.004519
0.002779	0.004529
0.002776	0.004539
0.002788	0.004549
0.002776	0.004559
0.002776	0.004569
0.002778	0.004579
0.002785	0.004589
0.002775	0.004599
0.002783	0.004609
0.002780	0.004619
0.002779	0.004629
0.002775	0.004639
0.002782	0.004649
0.002777	0.004659
0.002782	0.004669
0.002780	0.004679
0.002781	0.004689
0.002780	0.004699
0.002775	0.004709
0.002782	0.004720
0.002777	0.004729
0.002776	0.004739
0.002777	0.004749
0.002777	0.004759
0.002775	0.004769
0.002777	0.004779
0.002775	0.004789
0.002776	0.004799
0.002776	0.004809
0.002778	0.004819
0.002778	0.004829
0.002776	0.004839
0.002775	0.004849
0.002776	0.004859
0.002775	0.004869
0.002777	0.004880
0.002778	0.004890
0.002776	0.004900
0.002775	0.004910
0.002776	0.004920
0.002774	0.004930
0.002777	0.004940
0.002777	0.004950
0.002777	0.004960
0.002778	0.004970
0.002777	0.004980
0.002777	0.004990
0.002777	0.005000
